# Column 0: Wavelength (nm)
# Column 1: Relative F_lambda (erg cm^-2 s^-1 nm^-1)
# Note: Column 1 can be any (energy time^-1 length^-3) since it is rescaled in the code anyway 
# 	(0)    (1)
      320.000      0.00000
      349.990      0.00000
      350.170   0.00185795
      350.430   0.00185601
      350.700   0.00185372
      350.960   0.00185178
      351.230   0.00184950
      351.490   0.00184756
      351.760   0.00184558
      352.020   0.00184336
      352.290   0.00184138
      352.550   0.00183946
      352.820   0.00183720
      353.080   0.00183528
      353.350   0.00183331
      353.620   0.00183106
      353.880   0.00182915
      354.150   0.00182719
      354.410   0.00182500
      354.680   0.00182305
      354.940   0.00182115
      355.210   0.00181892
      355.470   0.00181703
      355.740   0.00181509
      356.000   0.00181292
      356.270   0.00181099
      356.530   0.00180882
      356.800   0.00180689
      357.070   0.00180497
      357.330   0.00180282
      357.600   0.00180089
      357.860   0.00179903
      358.130   0.00179683
      358.390   0.00179497
      358.660   0.00179306
      358.920   0.00179093
      359.190   0.00178903
      359.450   0.00178717
      359.720   0.00178500
      359.980   0.00178315
      360.250   0.00178126
      360.510   0.00177915
      360.780   0.00177726
      361.050   0.00177538
      361.310   0.00177327
      361.580   0.00177139
      361.840   0.00176929
      362.110   0.00176742
      362.370   0.00176560
      362.640   0.00176346
      362.900   0.00176164
      363.170   0.00175978
      363.430   0.00175770
      363.700   0.00175584
      363.960   0.00175404
      364.230   0.00175191
      364.490   0.00175012
      364.760   0.00174827
      365.030   0.00174616
      365.290   0.00174437
      365.560   0.00174253
      365.820   0.00174047
      366.090   0.00173864
      366.350   0.00173686
      366.620   0.00173477
      366.880   0.00173299
      367.150   0.00173117
      367.410   0.00172913
      367.680   0.00172732
      367.940   0.00172528
      368.210   0.00172347
      368.470   0.00172171
      368.740   0.00171964
      369.010   0.00171784
      369.270   0.00171609
      369.540   0.00171402
      369.800   0.00171228
      370.070   0.00171049
      370.330   0.00170848
      370.600   0.00170669
      370.860   0.00170496
      371.130   0.00170291
      371.390   0.00170118
      371.660   0.00169940
      371.920   0.00169741
      372.190   0.00169564
      372.450   0.00169392
      372.720   0.00169189
      372.990   0.00169013
      373.250   0.00168814
      373.520   0.00168639
      373.780   0.00168468
      374.050   0.00168266
      374.310   0.00168096
      374.580   0.00167921
      374.840   0.00167725
      375.110   0.00167551
      375.370   0.00167382
      375.640   0.00167181
      375.900   0.00167013
      376.170   0.00166839
      376.430   0.00166645
      376.700   0.00166472
      376.970   0.00166300
      377.230   0.00166106
      377.500   0.00165934
      377.760   0.00165767
      378.030   0.00165569
      378.290   0.00165402
      378.560   0.00165205
      378.820   0.00165039
      379.090   0.00164869
      379.350   0.00164676
      379.620   0.00164507
      379.880   0.00164341
      380.150   0.00164146
      380.410   0.00163981
      380.680   0.00163812
      380.950   0.00163617
      381.210   0.00163453
      381.480   0.00163285
      381.740   0.00163095
      382.010   0.00162928
      382.270   0.00162765
      382.540   0.00162571
      382.800   0.00162409
      383.070   0.00162242
      383.330   0.00162054
      383.600   0.00161887
      383.860   0.00161700
      384.130   0.00161534
      384.400   0.00161368
      384.660   0.00161181
      384.930   0.00161016
      385.190   0.00160856
      385.460   0.00160691
      385.720   0.00160505
      385.990   0.00160341
      386.250   0.00160181
      386.520   0.00159992
      386.780   0.00159832
      387.050   0.00159669
      387.310   0.00159510
      387.580   0.00159348
      387.840   0.00159164
      388.110   0.00159001
      388.380   0.00158839
      388.640   0.00158682
      388.910   0.00158520
      389.170   0.00158363
      389.440   0.00158176
      389.700   0.00158019
      389.970   0.00157858
      390.230   0.00157702
      390.500   0.00157542
      390.760   0.00157411
      391.030   0.00157251
      391.290   0.00157096
      391.560   0.00156936
      391.820   0.00156781
      392.090   0.00156622
      392.360   0.00156463
      392.620   0.00156309
      392.890   0.00156151
      393.150   0.00155996
      393.420   0.00155839
      393.680   0.00155710
      393.950   0.00155553
      394.210   0.00155399
      394.480   0.00155242
      394.740   0.00155089
      395.010   0.00154933
      395.270   0.00154780
      395.540   0.00154624
      395.800   0.00154472
      396.070   0.00154316
      396.340   0.00154161
      396.600   0.00154009
      396.870   0.00153854
      397.130   0.00153703
      397.400   0.00153548
      397.660   0.00153423
      397.930   0.00153268
      398.190   0.00153118
      398.460   0.00152964
      398.720   0.00152814
      398.990   0.00152660
      399.250   0.00152511
      399.520   0.00152358
      399.780   0.00152184
      400.050   0.00152031
      400.320   0.00151903
      400.580   0.00151755
      400.850   0.00151603
      401.110   0.00151430
      401.380   0.00151278
      401.640   0.00151130
      401.910   0.00150979
      402.170   0.00150832
      402.440   0.00150681
      402.700   0.00150534
      402.970   0.00150383
      403.230   0.00150237
      403.500   0.00150087
      403.760   0.00149941
      404.030   0.00149791
      404.300   0.00149641
      404.560   0.00149496
      404.830   0.00149347
      405.090   0.00149201
      405.360   0.00149053
      405.620   0.00148908
      405.890   0.00148760
      406.150   0.00148615
      406.420   0.00148467
      406.680   0.00148323
      406.950   0.00148200
      407.210   0.00148056
      407.480   0.00147909
      407.740   0.00147766
      408.010   0.00147619
      408.280   0.00147472
      408.540   0.00147330
      408.810   0.00147208
      409.070   0.00147065
      409.340   0.00146919
      409.600   0.00146777
      409.870   0.00146632
      410.130   0.00146515
      410.400   0.00146369
      410.660   0.00146252
      410.930   0.00146108
      411.190   0.00145991
      411.460   0.00145847
      411.730   0.00145727
      411.990   0.00145586
      412.260   0.00145442
      412.520   0.00145326
      412.790   0.00145183
      413.050   0.00145067
      413.320   0.00144924
      413.580   0.00144809
      413.850   0.00144666
      414.110   0.00144527
      414.380   0.00144409
      414.640   0.00144270
      414.910   0.00144152
      415.170   0.00144013
      415.440   0.00143872
      415.710   0.00143754
      415.970   0.00143616
      416.240   0.00143475
      416.500   0.00143361
      416.770   0.00143220
      417.030   0.00143083
      417.300   0.00142967
      417.560   0.00142830
      417.830   0.00142690
      418.090   0.00142553
      418.360   0.00142437
      418.620   0.00142301
      418.890   0.00142161
      419.150   0.00142026
      419.420   0.00141910
      419.690   0.00141771
      419.950   0.00141636
      420.220   0.00141497
      420.480   0.00141362
      420.750   0.00141224
      421.010   0.00141089
      421.280   0.00140951
      421.540   0.00140817
      421.810   0.00140679
      422.070   0.00140545
      422.340   0.00140408
      422.600   0.00140274
      422.870   0.00140138
      423.130   0.00140004
      423.400   0.00139868
      423.670   0.00139731
      423.930   0.00139599
      424.200   0.00139463
      424.460   0.00139330
      424.730   0.00139194
      424.990   0.00139062
      425.260   0.00138927
      425.520   0.00138795
      425.790   0.00138660
      426.050   0.00138528
      426.320   0.00138394
      426.580   0.00138262
      426.850   0.00138128
      427.110   0.00137997
      427.380   0.00137863
      427.650   0.00137729
      427.910   0.00137599
      428.180   0.00137466
      428.440   0.00137335
      428.710   0.00137202
      428.970   0.00137073
      429.240   0.00136963
      429.500   0.00136834
      429.770   0.00136701
      430.030   0.00136572
      430.300   0.00136440
      430.560   0.00136311
      430.830   0.00136202
      431.090   0.00136074
      431.360   0.00135942
      431.630   0.00135811
      431.890   0.00135683
      432.160   0.00135575
      432.420   0.00135447
      432.690   0.00135316
      432.950   0.00135189
      433.220   0.00135081
      433.480   0.00134954
      433.750   0.00134824
      434.010   0.00134697
      434.280   0.00134591
      434.540   0.00134464
      434.810   0.00134335
      435.070   0.00134231
      435.340   0.00134102
      435.610   0.00133973
      435.870   0.00133847
      436.140   0.00133741
      436.400   0.00133616
      436.670   0.00133510
      436.930   0.00133385
      437.200   0.00133257
      437.460   0.00133155
      437.730   0.00133027
      437.990   0.00132903
      438.260   0.00132798
      438.520   0.00132674
      438.790   0.00132569
      439.050   0.00132445
      439.320   0.00132341
      439.590   0.00132214
      439.850   0.00132113
      440.120   0.00131987
      440.380   0.00131886
      440.650   0.00131783
      440.910   0.00131682
      441.180   0.00131556
      441.440   0.00131456
      441.710   0.00131353
      441.970   0.00131253
      442.240   0.00131128
      442.500   0.00131028
      442.770   0.00130926
      443.040   0.00130823
      443.300   0.00130702
      443.570   0.00130599
      443.830   0.00130500
      444.100   0.00130376
      444.360   0.00130277
      444.630   0.00130176
      444.890   0.00130077
      445.160   0.00129953
      445.420   0.00129855
      445.690   0.00129731
      445.950   0.00129633
      446.220   0.00129533
      446.480   0.00129412
      446.750   0.00129312
      447.020   0.00129211
      447.280   0.00129091
      447.550   0.00128991
      447.810   0.00128872
      448.080   0.00128772
      448.340   0.00128652
      448.610   0.00128553
      448.870   0.00128456
      449.140   0.00128334
      449.400   0.00128238
      449.670   0.00128116
      449.930   0.00127998
      450.200   0.00127899
      450.460   0.00127780
      450.730   0.00127660
      451.000   0.00127561
      451.260   0.00127443
      451.530   0.00127323
      451.790   0.00127205
      452.060   0.00127107
      452.320   0.00126990
      452.590   0.00126870
      452.850   0.00126775
      453.120   0.00126655
      453.380   0.00126538
      453.650   0.00126419
      453.910   0.00126325
      454.180   0.00126205
      454.440   0.00126089
      454.710   0.00125992
      454.980   0.00125874
      455.240   0.00125758
      455.510   0.00125661
      455.770   0.00125546
      456.040   0.00125428
      456.300   0.00125334
      456.570   0.00125216
      456.830   0.00125101
      457.100   0.00125005
      457.360   0.00124891
      457.630   0.00124773
      457.890   0.00124681
      458.160   0.00124563
      458.420   0.00124449
      458.690   0.00124354
      458.960   0.00124237
      459.220   0.00124145
      459.490   0.00124029
      459.750   0.00123915
      460.020   0.00123821
      460.280   0.00123707
      460.550   0.00123613
      460.810   0.00123500
      461.080   0.00123406
      461.340   0.00123293
      461.610   0.00123199
      461.870   0.00123087
      462.140   0.00122993
      462.400   0.00122881
      462.670   0.00122787
      462.940   0.00122672
      463.200   0.00122582
      463.470   0.00122467
      463.730   0.00122377
      464.000   0.00122284
      464.260   0.00122173
      464.530   0.00122080
      464.790   0.00121969
      465.060   0.00121877
      465.320   0.00121766
      465.590   0.00121674
      465.850   0.00121584
      466.120   0.00121471
      466.380   0.00121382
      466.650   0.00121269
      466.920   0.00121177
      467.180   0.00121088
      467.450   0.00120997
      467.710   0.00120887
      467.980   0.00120796
      468.240   0.00120707
      468.510   0.00120616
      468.770   0.00120507
      469.040   0.00120416
      469.300   0.00120328
      469.570   0.00120238
      469.830   0.00120150
      470.100   0.00120060
      470.370   0.00119969
      470.630   0.00119882
      470.900   0.00119792
      471.160   0.00119705
      471.430   0.00119615
      471.690   0.00119528
      471.960   0.00119459
      472.220   0.00119372
      472.490   0.00119283
      472.750   0.00119196
      473.020   0.00119107
      473.280   0.00119020
      473.550   0.00118931
      473.810   0.00118845
      474.080   0.00118756
      474.350   0.00118668
      474.610   0.00118582
      474.880   0.00118493
      475.140   0.00118407
      475.410   0.00118319
      475.670   0.00118233
      475.940   0.00118145
      476.200   0.00118060
      476.470   0.00117972
      476.730   0.00117886
      477.000   0.00117778
      477.260   0.00117693
      477.530   0.00117605
      477.790   0.00117520
      478.060   0.00117433
      478.330   0.00117325
      478.590   0.00117240
      478.860   0.00117153
      479.120   0.00117048
      479.390   0.00116961
      479.650   0.00116877
      479.920   0.00116769
      480.180   0.00116685
      480.450   0.00116578
      480.710   0.00116474
      480.980   0.00116367
      481.240   0.00116262
      481.510   0.00116176
      481.770   0.00116072
      482.040   0.00115965
      482.310   0.00115859
      482.570   0.00115776
      482.840   0.00115670
      483.100   0.00115566
      483.370   0.00115460
      483.630   0.00115377
      483.900   0.00115272
      484.160   0.00115169
      484.430   0.00115063
      484.690   0.00114960
      484.960   0.00114875
      485.220   0.00114773
      485.490   0.00114668
      485.750   0.00114586
      486.020   0.00114481
      486.290   0.00114376
      486.550   0.00114274
      486.820   0.00114190
      487.080   0.00114088
      487.350   0.00113984
      487.610   0.00113903
      487.880   0.00113798
      488.140   0.00113697
      488.410   0.00113614
      488.670   0.00113512
      488.940   0.00113429
      489.200   0.00113328
      489.470   0.00113225
      489.730   0.00113144
      490.000   0.00113041
      490.270   0.00112958
      490.530   0.00112858
      490.800   0.00112775
      491.060   0.00112675
      491.330   0.00112592
      491.590   0.00112512
      491.860   0.00112410
      492.120   0.00112330
      492.390   0.00112228
      492.650   0.00112149
      492.920   0.00112047
      493.180   0.00111967
      493.450   0.00111886
      493.710   0.00111786
      493.980   0.00111705
      494.250   0.00111603
      494.510   0.00111525
      494.780   0.00111443
      495.040   0.00111345
      495.310   0.00111264
      495.570   0.00111165
      495.840   0.00111084
      496.100   0.00110986
      496.370   0.00110905
      496.630   0.00110827
      496.900   0.00110727
      497.160   0.00110648
      497.430   0.00110568
      497.700   0.00110468
      497.960   0.00110390
      498.230   0.00110290
      498.490   0.00110213
      498.760   0.00110133
      499.020   0.00110036
      499.290   0.00109956
      499.550   0.00109879
      499.820   0.00109780
      500.080   0.00109702
      500.350   0.00109623
      500.610   0.00109526
      500.880   0.00109447
      501.140   0.00109371
      501.410   0.00109292
      501.680   0.00109193
      501.940   0.00109117
      502.210   0.00109038
      502.470   0.00108962
      502.740   0.00108863
      503.000   0.00108787
      503.270   0.00108709
      503.530   0.00108633
      503.800   0.00108535
      504.060   0.00108459
      504.330   0.00108381
      504.590   0.00108306
      504.860   0.00108208
      505.120   0.00108133
      505.390   0.00108055
      505.660   0.00107978
      505.920   0.00107883
      506.190   0.00107805
      506.450   0.00107730
      506.720   0.00107653
      506.980   0.00107558
      507.250   0.00107482
      507.510   0.00107407
      507.780   0.00107330
      508.040   0.00107236
      508.310   0.00107159
      508.570   0.00107085
      508.840   0.00107008
      509.100   0.00106914
      509.370   0.00106838
      509.640   0.00106762
      509.900   0.00106688
      510.170   0.00106612
      510.430   0.00106538
      510.700   0.00106442
      510.960   0.00106486
      511.230   0.00105823
      511.490   0.00106512
      511.760   0.00106847
      512.020   0.00106636
      512.290   0.00104472
      512.550   0.00101941
      512.820   0.00101927
      513.080   0.00104214
      513.350   0.00105542
      513.620   0.00104766
      513.880   0.00103254
      514.150   0.00103569
      514.410   0.00103711
      514.680   0.00104084
      514.940   0.00103216
      515.210   0.00102735
      515.470   0.00101577
      515.740   0.00101001
      516.000   0.00101260
      516.270  0.000998315
      516.530  0.000986390
      516.800  0.000977361
      517.060   0.00100375
      517.330   0.00101483
      517.600   0.00103207
      517.860   0.00100722
      518.130   0.00101751
      518.390   0.00101892
      518.660   0.00105078
      518.920   0.00103908
      519.190   0.00105992
      519.450   0.00126595
      519.720   0.00151139
      519.980   0.00158160
      520.250   0.00139068
      520.510   0.00115137
      520.780   0.00105707
      521.040   0.00102411
      521.310   0.00101897
      521.580   0.00102209
      521.840   0.00103442
      522.110   0.00105725
      522.370   0.00103145
      522.640   0.00100643
      522.900  0.000988334
      523.170   0.00100140
      523.430   0.00101274
      523.700   0.00102196
      523.960   0.00102489
      524.230   0.00101864
      524.490   0.00100745
      524.760  0.000997218
      525.030   0.00101232
      525.290   0.00101963
      525.560   0.00102862
      525.820   0.00100319
      526.090  0.000973217
      526.350  0.000954118
      526.620  0.000954009
      526.880  0.000972897
      527.150   0.00100484
      527.410   0.00103165
      527.680   0.00103851
      527.940   0.00104766
      528.210   0.00102232
      528.470  0.000996840
      528.740  0.000966827
      529.010  0.000977864
      529.270  0.000994577
      529.540   0.00100823
      529.800   0.00101114
      530.070   0.00101138
      530.330   0.00100164
      530.600  0.000999435
      530.860   0.00102927
      531.130   0.00103346
      531.390   0.00103032
      531.660  0.000995185
      531.920  0.000987931
      532.190  0.000981604
      532.450  0.000997277
      532.720   0.00102737
      532.990   0.00106569
      533.250   0.00104848
      533.520   0.00101458
      533.780  0.000978493
      534.050  0.000978560
      534.310  0.000988752
      534.580  0.000994238
      534.840  0.000986463
      535.110  0.000972884
      535.370  0.000970170
      535.640  0.000983683
      535.900  0.000992909
      536.170  0.000989798
      536.430  0.000979252
      536.700  0.000975033
      536.970  0.000970632
      537.230  0.000985239
      537.500  0.000978419
      537.760  0.000967160
      538.030  0.000940096
      538.290  0.000934998
      538.560  0.000940099
      538.820  0.000962659
      539.090  0.000956241
      539.350  0.000953741
      539.620  0.000940662
      539.880  0.000946692
      540.150  0.000951032
      540.410  0.000947429
      540.680  0.000963047
      540.950  0.000952953
      541.210  0.000968570
      541.480  0.000948327
      541.740  0.000960239
      542.010  0.000936330
      542.270  0.000931639
      542.540  0.000927674
      542.800  0.000937178
      543.070  0.000956967
      543.330  0.000972337
      543.600  0.000971302
      543.860  0.000973228
